0 FILE 30372d01.dat
0 Windscreen 7 x 4 x 1 2/3 with Locking Dual 2 Fingers, 9 Teeth with SW UCS Y-wing Pattern (Stickers) - Set 10134
0 Name:  30372d01.dat
0 Author:  
0 BL_Item_No 30372pb03
0 BFC CERTIFY CCW
1 16 0.0000 0.0000 0.0000 1.0000 0.0000 0.0000 0.0000 1.0000 0.0000 0.0000 0.0000 1.0000 30372.dat
3 10047 -40.250 5.500 -10.000 -40.250 26.500 -10.000 -40.250 26.500 -58.500
3 10047 -40.250 26.500 -58.500 -40.250 5.500 -58.500 -40.250 5.500 -10.000
3 10047 -40.250 9.141 -76.190 -40.250 5.500 -67.000 -40.250 26.500 -67.000
3 10047 -40.250 26.500 -67.000 -40.250 26.500 -85.833 -40.250 9.141 -76.190
3 10047 -40.234 26.457 -85.911 -28.845 26.457 -120.078 -40.234 9.098 -76.267
3 10047 -27.522 37.848 -127.435 -27.738 37.414 -126.786 -27.883 36.765 -126.352
3 10047 -27.959 34.117 -126.124 -27.985 34.000 -126.046 -20.149 34.000 -149.554
3 10047 -38.262 37.414 -95.214 -38.478 37.848 -94.565 -38.117 36.765 -95.648
3 10047 -38.041 34.117 -95.876 -40.000 34.000 -90.000 -38.015 34.000 -95.955
3 10047 -38.041 34.117 -95.876 -38.066 34.500 -95.800 -40.000 34.000 -90.000
3 10047 -38.066 34.500 -95.800 -38.066 36.000 -95.800 -40.000 34.000 -90.000
3 10047 -27.985 34.000 -126.046 -27.993 33.793 -125.907 -20.160 33.711 -149.358
3 10047 -20.160 33.711 -149.358 -20.149 34.000 -149.554 -27.985 34.000 -126.046
3 10047 -40.000 34.000 -90.000 -40.000 38.000 -90.000 -40.000 38.000 -14.000
3 10047 -40.000 38.000 -14.000 -40.000 34.000 -10.000 -40.000 34.000 -90.000
3 10047 -27.267 38.000 -128.200 -27.522 37.848 -127.435 -27.883 36.765 -126.352
3 10047 -27.883 36.765 -126.352 -27.934 36.000 -126.200 -27.267 38.000 -128.200
3 10047 -20.051 36.765 -149.848 -20.195 37.414 -149.414 -20.412 37.848 -148.765
3 10047 -20.412 37.848 -148.765 -20.000 36.000 -150.000 -20.051 36.765 -149.848
3 10047 -27.934 36.000 -126.200 -20.000 35.200 -150.000 -20.667 38.000 -148.000
3 10047 -20.667 38.000 -148.000 -27.267 38.000 -128.200 -27.934 36.000 -126.200
3 10047 -20.667 38.000 -148.000 -20.000 35.200 -150.000 -20.000 36.000 -150.000
3 10047 -20.000 36.000 -150.000 -20.412 37.848 -148.765 -20.667 38.000 -148.000
3 10047 -27.934 36.000 -126.200 -27.934 34.500 -126.200 -20.051 34.435 -149.848
3 10047 -20.051 34.435 -149.848 -20.000 35.200 -150.000 -27.934 36.000 -126.200
3 10047 -20.149 34.000 -149.554 -20.051 34.435 -149.848 -27.934 34.500 -126.200
3 10047 -27.934 34.500 -126.200 -27.959 34.117 -126.124 -20.149 34.000 -149.554
3 10047 -38.066 36.000 -95.800 -38.117 36.765 -95.648 -38.478 37.848 -94.565
3 10047 -38.478 37.848 -94.565 -38.733 38.000 -93.800 -38.066 36.000 -95.800
3 10047 -38.733 38.000 -93.800 -40.000 38.000 -90.000 -40.000 34.000 -90.000
3 10047 -40.000 34.000 -90.000 -38.066 36.000 -95.800 -38.733 38.000 -93.800
3 10047 -40.000 0.000 -10.000 -40.000 -2.000 -12.000 -40.000 -2.000 -70.000
3 10047 -40.000 -2.000 -70.000 -40.000 34.000 -90.000 -40.000 0.000 -10.000
3 10047 -40.000 0.000 -10.000 -40.000 34.000 -90.000 -40.000 34.000 -10.000
3 10047 -37.782 33.576 -96.417 -40.000 -2.000 -70.000 -37.641 33.500 -96.800
3 10047 -38.015 34.000 -95.955 -40.000 34.000 -90.000 -37.931 33.793 -96.093
3 10047 -37.931 33.793 -96.093 -40.000 34.000 -90.000 -40.000 -2.000 -70.000
3 10047 -40.000 -2.000 -70.000 -37.782 33.576 -96.417 -37.931 33.793 -96.093
3 10047 -28.174 33.500 -125.200 -37.641 33.500 -96.800 -40.000 -2.000 -70.000
3 10047 -28.174 33.500 -125.200 -40.000 -2.000 -70.000 -20.160 33.711 -149.358
3 10047 -20.160 33.711 -149.358 -28.061 33.576 -125.583 -28.174 33.500 -125.200
3 10047 -27.993 33.793 -125.907 -28.061 33.576 -125.583 -20.160 33.711 -149.358
3 10047 -40.000 0.000 -10.000 -40.000 34.000 -10.000 -40.250 34.000 -10.000
3 10047 -40.250 34.000 -10.000 -40.250 0.000 -10.000 -40.000 0.000 -10.000
3 10047 -40.000 -2.000 -12.000 -40.250 -2.000 -12.000 -40.250 -2.000 -70.000
3 10047 -40.250 -2.000 -70.000 -40.000 -2.000 -70.000 -40.000 -2.000 -12.000
3 10047 -40.000 38.000 -14.000 -40.000 38.000 -90.000 -40.250 38.000 -90.000
3 10047 -40.250 38.000 -90.000 -40.250 38.000 -14.000 -40.000 38.000 -14.000
3 10047 -20.149 34.000 -149.554 -20.160 33.711 -149.358 -20.394 33.668 -149.436
3 10047 -20.394 33.668 -149.436 -20.382 33.957 -149.632 -20.149 34.000 -149.554
3 10047 -20.051 34.435 -149.848 -20.149 34.000 -149.554 -20.382 33.957 -149.632
3 10047 -20.382 33.957 -149.632 -20.284 34.391 -149.926 -20.051 34.435 -149.848
3 10047 -20.000 35.200 -150.000 -20.051 34.435 -149.848 -20.284 34.391 -149.926
3 10047 -20.284 34.391 -149.926 -20.234 35.157 -150.078 -20.000 35.200 -150.000
3 10047 -20.000 35.200 -150.000 -20.234 35.157 -150.078 -20.234 35.957 -150.078
3 10047 -20.234 35.957 -150.078 -20.000 36.000 -150.000 -20.000 35.200 -150.000
3 10047 -20.000 36.000 -150.000 -20.234 35.957 -150.078 -20.284 36.722 -149.926
3 10047 -20.284 36.722 -149.926 -20.051 36.765 -149.848 -20.000 36.000 -150.000
3 10047 -20.051 36.765 -149.848 -20.284 36.722 -149.926 -20.429 37.371 -149.492
3 10047 -20.429 37.371 -149.492 -20.195 37.414 -149.414 -20.051 36.765 -149.848
3 10047 -20.195 37.414 -149.414 -20.429 37.371 -149.492 -20.645 37.805 -148.843
3 10047 -20.645 37.805 -148.843 -20.412 37.848 -148.765 -20.195 37.414 -149.414
3 10047 -20.412 37.848 -148.765 -20.645 37.805 -148.843 -20.900 37.957 -148.078
3 10047 -20.900 37.957 -148.078 -20.667 38.000 -148.000 -20.412 37.848 -148.765
3 10047 -20.667 38.000 -148.000 -20.900 37.957 -148.078 -27.501 37.957 -128.278
3 10047 -27.501 37.957 -128.278 -27.267 38.000 -128.200 -20.667 38.000 -148.000
3 10047 -27.267 38.000 -128.200 -27.501 37.957 -128.278 -27.756 37.805 -127.513
3 10047 -27.756 37.805 -127.513 -27.522 37.848 -127.435 -27.267 38.000 -128.200
3 10047 -27.522 37.848 -127.435 -27.756 37.805 -127.513 -27.972 37.371 -126.864
3 10047 -27.972 37.371 -126.864 -27.738 37.414 -126.786 -27.522 37.848 -127.435
3 10047 -27.738 37.414 -126.786 -27.972 37.371 -126.864 -28.117 36.722 -126.430
3 10047 -28.117 36.722 -126.430 -27.883 36.765 -126.352 -27.738 37.414 -126.786
3 10047 -27.883 36.765 -126.352 -28.117 36.722 -126.430 -28.167 35.957 -126.278
3 10047 -28.167 35.957 -126.278 -27.934 36.000 -126.200 -27.883 36.765 -126.352
3 10047 -27.934 34.500 -126.200 -27.934 36.000 -126.200 -28.167 35.957 -126.278
3 10047 -28.167 35.957 -126.278 -28.167 34.457 -126.278 -27.934 34.500 -126.200
3 10047 -28.061 33.576 -125.583 -28.294 33.533 -125.661 -28.408 33.457 -125.278
3 10047 -28.408 33.457 -125.278 -28.174 33.500 -125.200 -28.061 33.576 -125.583
3 10047 -27.993 33.793 -125.907 -28.226 33.750 -125.985 -28.294 33.533 -125.661
3 10047 -28.294 33.533 -125.661 -28.061 33.576 -125.583 -27.993 33.793 -125.907
3 10047 -27.985 34.000 -126.046 -28.219 33.957 -126.123 -28.226 33.750 -125.985
3 10047 -28.226 33.750 -125.985 -27.993 33.793 -125.907 -27.985 34.000 -126.046
3 10047 -27.959 34.117 -126.124 -28.193 34.074 -126.202 -28.219 33.957 -126.123
3 10047 -28.219 33.957 -126.123 -27.985 34.000 -126.046 -27.959 34.117 -126.124
3 10047 -27.934 34.500 -126.200 -28.167 34.457 -126.278 -28.193 34.074 -126.202
3 10047 -28.193 34.074 -126.202 -27.959 34.117 -126.124 -27.934 34.500 -126.200
3 10047 -28.174 33.500 -125.200 -28.408 33.457 -125.278 -37.874 33.457 -96.878
3 10047 -37.874 33.457 -96.878 -37.641 33.500 -96.800 -28.174 33.500 -125.200
3 10047 -37.641 33.500 -96.800 -37.874 33.457 -96.878 -38.016 33.533 -96.495
3 10047 -38.016 33.533 -96.495 -37.782 33.576 -96.417 -37.641 33.500 -96.800
3 10047 -37.782 33.576 -96.417 -38.016 33.533 -96.495 -38.164 33.750 -96.171
3 10047 -38.164 33.750 -96.171 -37.931 33.793 -96.093 -37.782 33.576 -96.417
3 10047 -37.931 33.793 -96.093 -38.164 33.750 -96.171 -38.249 33.957 -96.032
3 10047 -38.249 33.957 -96.032 -38.015 34.000 -95.955 -37.931 33.793 -96.093
3 10047 -38.015 34.000 -95.955 -38.249 33.957 -96.032 -38.275 34.074 -95.954
3 10047 -38.275 34.074 -95.954 -38.041 34.117 -95.876 -38.015 34.000 -95.955
3 10047 -38.041 34.117 -95.876 -38.275 34.074 -95.954 -38.300 34.457 -95.878
3 10047 -38.300 34.457 -95.878 -38.066 34.500 -95.800 -38.041 34.117 -95.876
3 10047 -38.066 34.500 -95.800 -38.300 34.457 -95.878 -38.300 35.957 -95.878
3 10047 -38.300 35.957 -95.878 -38.066 36.000 -95.800 -38.066 34.500 -95.800
3 10047 -38.066 36.000 -95.800 -38.300 35.957 -95.878 -38.351 36.722 -95.726
3 10047 -38.351 36.722 -95.726 -38.117 36.765 -95.648 -38.066 36.000 -95.800
3 10047 -38.262 37.414 -95.214 -38.117 36.765 -95.648 -38.351 36.722 -95.726
3 10047 -38.351 36.722 -95.726 -38.495 37.371 -95.292 -38.262 37.414 -95.214
3 10047 -38.262 37.414 -95.214 -38.495 37.371 -95.292 -38.712 37.805 -94.643
3 10047 -38.712 37.805 -94.643 -38.478 37.848 -94.565 -38.262 37.414 -95.214
3 10047 -38.478 37.848 -94.565 -38.712 37.805 -94.643 -38.967 37.957 -93.878
3 10047 -38.967 37.957 -93.878 -38.733 38.000 -93.800 -38.478 37.848 -94.565
3 10047 -38.733 38.000 -93.800 -38.967 37.957 -93.878 -40.234 37.957 -90.078
3 10047 -40.234 37.957 -90.078 -40.000 38.000 -90.000 -38.733 38.000 -93.800
3 10047 -40.000 -2.000 -70.000 -40.234 -2.043 -70.078 -20.394 33.668 -149.436
3 10047 -20.394 33.668 -149.436 -20.160 33.711 -149.358 -40.000 -2.000 -70.000
3 10047 -40.234 -2.043 -70.078 -40.000 -2.000 -70.000 -40.250 -2.000 -70.000
3 10047 -40.000 38.000 -90.000 -40.234 37.957 -90.078 -40.250 38.000 -90.000
3 10047 -40.234 9.098 -76.267 -40.250 9.141 -76.190 -40.250 26.500 -85.833
3 10047 -40.250 26.500 -85.833 -40.234 26.457 -85.911 -40.234 9.098 -76.267
3 15 -40.234 37.957 -90.078 -40.234 33.957 -90.078 -40.250 34.000 -90.000
3 15 -40.250 34.000 -90.000 -40.250 38.000 -90.000 -40.234 37.957 -90.078
3 15 -40.234 26.457 -85.911 -40.250 26.500 -85.833 -40.250 34.000 -90.000
3 15 -40.250 34.000 -90.000 -40.234 33.957 -90.078 -40.234 26.457 -85.911
3 15 -40.234 -2.043 -70.078 -40.250 -2.000 -70.000 -40.250 9.141 -76.190
3 15 -40.250 9.141 -76.190 -40.234 9.098 -76.267 -40.234 -2.043 -70.078
3 15 -28.219 33.957 -126.123 -28.193 34.074 -126.202 -20.382 33.957 -149.632
3 15 -40.250 5.500 -67.000 -40.250 9.141 -76.190 -40.250 -2.000 -70.000
3 15 -40.250 26.500 -10.000 -40.250 34.000 -10.000 -40.250 26.500 -58.500
3 15 -40.250 26.500 -67.000 -40.250 34.000 -90.000 -40.250 26.500 -85.833
3 15 -40.250 26.500 -67.000 -40.250 5.500 -67.000 -40.250 5.500 -58.500
3 15 -40.250 5.500 -58.500 -40.250 26.500 -58.500 -40.250 26.500 -67.000
3 15 -40.250 -2.000 -12.000 -40.250 5.500 -58.500 -40.250 5.500 -67.000
3 15 -40.250 5.500 -67.000 -40.250 -2.000 -70.000 -40.250 -2.000 -12.000
3 15 -40.250 5.500 -10.000 -40.250 5.500 -58.500 -40.250 -2.000 -12.000
3 15 -40.250 -2.000 -12.000 -40.250 0.000 -10.000 -40.250 5.500 -10.000
3 15 -40.250 26.500 -67.000 -40.250 26.500 -58.500 -40.250 34.000 -10.000
3 15 -40.250 34.000 -10.000 -40.250 34.000 -90.000 -40.250 26.500 -67.000
3 15 -40.250 34.000 -90.000 -40.250 34.000 -10.000 -40.250 38.000 -14.000
3 15 -40.250 38.000 -14.000 -40.250 38.000 -90.000 -40.250 34.000 -90.000
3 15 -38.164 33.750 -96.171 -38.016 33.533 -96.495 -38.208 33.457 -95.878
3 15 -37.874 33.457 -96.878 -28.408 33.457 -125.278 -28.845 26.457 -120.078
3 15 -28.074 33.457 -126.278 -20.394 33.668 -149.436 -28.845 26.457 -120.078
3 15 -27.972 37.371 -126.864 -27.756 37.805 -127.513 -28.117 36.722 -126.430
3 15 -38.712 37.805 -94.643 -38.495 37.371 -95.292 -38.351 36.722 -95.726
3 15 -40.234 33.957 -90.078 -38.275 34.074 -95.954 -38.249 33.957 -96.032
3 15 -38.300 34.457 -95.878 -38.275 34.074 -95.954 -40.234 33.957 -90.078
3 15 -38.300 35.957 -95.878 -38.300 34.457 -95.878 -40.234 33.957 -90.078
3 15 -37.874 33.457 -96.878 -28.845 26.457 -120.078 -38.208 33.457 -95.878
3 15 -38.208 33.457 -95.878 -38.016 33.533 -96.495 -37.874 33.457 -96.878
3 15 -28.074 33.457 -126.278 -28.845 26.457 -120.078 -28.408 33.457 -125.278
3 15 -28.408 33.457 -125.278 -28.294 33.533 -125.661 -28.074 33.457 -126.278
3 15 -40.234 -2.043 -70.078 -40.234 9.098 -76.267 -28.845 26.457 -120.078
3 15 -28.845 26.457 -120.078 -20.394 33.668 -149.436 -40.234 -2.043 -70.078
3 15 -38.208 33.457 -95.878 -28.845 26.457 -120.078 -40.234 26.457 -85.911
3 15 -40.234 26.457 -85.911 -40.234 33.957 -90.078 -38.208 33.457 -95.878
3 15 -38.249 33.957 -96.032 -38.164 33.750 -96.171 -38.208 33.457 -95.878
3 15 -38.208 33.457 -95.878 -40.234 33.957 -90.078 -38.249 33.957 -96.032
3 15 -28.219 33.957 -126.123 -20.382 33.957 -149.632 -20.394 33.668 -149.436
3 15 -20.394 33.668 -149.436 -28.226 33.750 -125.985 -28.219 33.957 -126.123
3 15 -28.074 33.457 -126.278 -28.294 33.533 -125.661 -28.226 33.750 -125.985
3 15 -28.226 33.750 -125.985 -20.394 33.668 -149.436 -28.074 33.457 -126.278
3 15 -27.501 37.957 -128.278 -28.167 35.957 -126.278 -28.117 36.722 -126.430
3 15 -28.117 36.722 -126.430 -27.756 37.805 -127.513 -27.501 37.957 -128.278
3 15 -20.284 36.722 -149.926 -20.234 35.957 -150.078 -20.645 37.805 -148.843
3 15 -20.645 37.805 -148.843 -20.429 37.371 -149.492 -20.284 36.722 -149.926
3 15 -28.167 35.957 -126.278 -27.501 37.957 -128.278 -20.900 37.957 -148.078
3 15 -20.900 37.957 -148.078 -20.234 35.157 -150.078 -28.167 35.957 -126.278
3 15 -20.900 37.957 -148.078 -20.645 37.805 -148.843 -20.234 35.957 -150.078
3 15 -20.234 35.957 -150.078 -20.234 35.157 -150.078 -20.900 37.957 -148.078
3 15 -28.167 35.957 -126.278 -20.234 35.157 -150.078 -20.284 34.391 -149.926
3 15 -20.284 34.391 -149.926 -28.167 34.457 -126.278 -28.167 35.957 -126.278
3 15 -20.382 33.957 -149.632 -28.193 34.074 -126.202 -28.167 34.457 -126.278
3 15 -28.167 34.457 -126.278 -20.284 34.391 -149.926 -20.382 33.957 -149.632
3 15 -38.300 35.957 -95.878 -38.967 37.957 -93.878 -38.712 37.805 -94.643
3 15 -38.712 37.805 -94.643 -38.351 36.722 -95.726 -38.300 35.957 -95.878
3 15 -38.967 37.957 -93.878 -38.300 35.957 -95.878 -40.234 33.957 -90.078
3 15 -40.234 33.957 -90.078 -40.234 37.957 -90.078 -38.967 37.957 -93.878
1 10047 -40.0000 0.0000 -12.0000 0.0000 -1.0000 0.0000 -2.0000 0.0000 0.0000 0.0000 0.0000 2.0000 1-4chrd.dat
1 10047 -40.0000 34.0000 -14.0000 0.0000 -1.0000 0.0000 0.0000 0.0000 4.0000 4.0000 0.0000 0.0000 1-4chrd.dat
1 10047 -40.2500 0.0000 -12.0000 0.0000 0.2500 0.0000 -2.0000 0.0000 0.0000 0.0000 0.0000 2.0000 1-4cyli.dat
1 10047 -40.2500 34.0000 -14.0000 0.0000 0.2500 0.0000 0.0000 0.0000 4.0000 4.0000 0.0000 0.0000 1-4cyli.dat
1 15 -40.2500 0.0000 -12.0000 0.0000 1.0000 0.0000 -2.0000 0.0000 0.0000 0.0000 0.0000 2.0000 1-4chrd.dat
1 15 -40.2500 34.0000 -14.0000 0.0000 1.0000 0.0000 0.0000 0.0000 4.0000 4.0000 0.0000 0.0000 1-4chrd.dat
3 10047 40.250 26.500 -58.500 40.250 26.500 -10.000 40.250 5.500 -10.000
3 10047 40.250 5.500 -10.000 40.250 5.500 -58.500 40.250 26.500 -58.500
3 10047 40.250 26.500 -67.000 40.250 5.500 -67.000 40.250 9.141 -76.190
3 10047 40.250 9.141 -76.190 40.250 26.500 -85.833 40.250 26.500 -67.000
3 10047 40.234 9.098 -76.267 28.845 26.457 -120.078 40.234 26.457 -85.911
3 10047 27.883 36.765 -126.352 27.738 37.414 -126.786 27.522 37.848 -127.435
3 10047 20.149 34.000 -149.554 27.985 34.000 -126.046 27.959 34.117 -126.124
3 10047 38.117 36.765 -95.648 38.478 37.848 -94.565 38.262 37.414 -95.214
3 10047 38.015 34.000 -95.955 40.000 34.000 -90.000 38.041 34.117 -95.876
3 10047 40.000 34.000 -90.000 38.066 34.500 -95.800 38.041 34.117 -95.876
3 10047 40.000 34.000 -90.000 38.066 36.000 -95.800 38.066 34.500 -95.800
3 10047 20.160 33.711 -149.358 27.993 33.793 -125.907 27.985 34.000 -126.046
3 10047 27.985 34.000 -126.046 20.149 34.000 -149.554 20.160 33.711 -149.358
3 10047 40.000 38.000 -14.000 40.000 38.000 -90.000 40.000 34.000 -90.000
3 10047 40.000 34.000 -90.000 40.000 34.000 -10.000 40.000 38.000 -14.000
3 10047 27.883 36.765 -126.352 27.522 37.848 -127.435 27.267 38.000 -128.200
3 10047 27.267 38.000 -128.200 27.934 36.000 -126.200 27.883 36.765 -126.352
3 10047 20.412 37.848 -148.765 20.195 37.414 -149.414 20.051 36.765 -149.848
3 10047 20.051 36.765 -149.848 20.000 36.000 -150.000 20.412 37.848 -148.765
3 10047 20.667 38.000 -148.000 20.000 35.200 -150.000 27.934 36.000 -126.200
3 10047 27.934 36.000 -126.200 27.267 38.000 -128.200 20.667 38.000 -148.000
3 10047 20.000 36.000 -150.000 20.000 35.200 -150.000 20.667 38.000 -148.000
3 10047 20.667 38.000 -148.000 20.412 37.848 -148.765 20.000 36.000 -150.000
3 10047 20.051 34.435 -149.848 27.934 34.500 -126.200 27.934 36.000 -126.200
3 10047 27.934 36.000 -126.200 20.000 35.200 -150.000 20.051 34.435 -149.848
3 10047 27.934 34.500 -126.200 20.051 34.435 -149.848 20.149 34.000 -149.554
3 10047 20.149 34.000 -149.554 27.959 34.117 -126.124 27.934 34.500 -126.200
3 10047 38.478 37.848 -94.565 38.117 36.765 -95.648 38.066 36.000 -95.800
3 10047 38.066 36.000 -95.800 38.733 38.000 -93.800 38.478 37.848 -94.565
3 10047 40.000 34.000 -90.000 40.000 38.000 -90.000 38.733 38.000 -93.800
3 10047 38.733 38.000 -93.800 38.066 36.000 -95.800 40.000 34.000 -90.000
3 10047 40.000 -2.000 -70.000 40.000 -2.000 -12.000 40.000 0.000 -10.000
3 10047 40.000 0.000 -10.000 40.000 34.000 -90.000 40.000 -2.000 -70.000
3 10047 40.000 34.000 -10.000 40.000 34.000 -90.000 40.000 0.000 -10.000
3 10047 37.641 33.500 -96.800 40.000 -2.000 -70.000 37.782 33.576 -96.417
3 10047 37.931 33.793 -96.093 40.000 34.000 -90.000 38.015 34.000 -95.955
3 10047 40.000 -2.000 -70.000 40.000 34.000 -90.000 37.931 33.793 -96.093
3 10047 37.931 33.793 -96.093 37.782 33.576 -96.417 40.000 -2.000 -70.000
3 10047 40.000 -2.000 -70.000 37.641 33.500 -96.800 28.174 33.500 -125.200
3 10047 20.160 33.711 -149.358 40.000 -2.000 -70.000 28.174 33.500 -125.200
3 10047 28.174 33.500 -125.200 28.061 33.576 -125.583 20.160 33.711 -149.358
3 10047 20.160 33.711 -149.358 28.061 33.576 -125.583 27.993 33.793 -125.907
3 10047 40.250 34.000 -10.000 40.000 34.000 -10.000 40.000 0.000 -10.000
3 10047 40.000 0.000 -10.000 40.250 0.000 -10.000 40.250 34.000 -10.000
3 10047 40.250 -2.000 -70.000 40.250 -2.000 -12.000 40.000 -2.000 -12.000
3 10047 40.000 -2.000 -12.000 40.000 -2.000 -70.000 40.250 -2.000 -70.000
3 10047 40.250 38.000 -90.000 40.000 38.000 -90.000 40.000 38.000 -14.000
3 10047 40.000 38.000 -14.000 40.250 38.000 -14.000 40.250 38.000 -90.000
3 10047 20.394 33.668 -149.436 20.160 33.711 -149.358 20.149 34.000 -149.554
3 10047 20.149 34.000 -149.554 20.382 33.957 -149.632 20.394 33.668 -149.436
3 10047 20.382 33.957 -149.632 20.149 34.000 -149.554 20.051 34.435 -149.848
3 10047 20.051 34.435 -149.848 20.284 34.391 -149.926 20.382 33.957 -149.632
3 10047 20.284 34.391 -149.926 20.051 34.435 -149.848 20.000 35.200 -150.000
3 10047 20.000 35.200 -150.000 20.234 35.157 -150.078 20.284 34.391 -149.926
3 10047 20.234 35.957 -150.078 20.234 35.157 -150.078 20.000 35.200 -150.000
3 10047 20.000 35.200 -150.000 20.000 36.000 -150.000 20.234 35.957 -150.078
3 10047 20.284 36.722 -149.926 20.234 35.957 -150.078 20.000 36.000 -150.000
3 10047 20.000 36.000 -150.000 20.051 36.765 -149.848 20.284 36.722 -149.926
3 10047 20.429 37.371 -149.492 20.284 36.722 -149.926 20.051 36.765 -149.848
3 10047 20.051 36.765 -149.848 20.195 37.414 -149.414 20.429 37.371 -149.492
3 10047 20.645 37.805 -148.843 20.429 37.371 -149.492 20.195 37.414 -149.414
3 10047 20.195 37.414 -149.414 20.412 37.848 -148.765 20.645 37.805 -148.843
3 10047 20.900 37.957 -148.078 20.645 37.805 -148.843 20.412 37.848 -148.765
3 10047 20.412 37.848 -148.765 20.667 38.000 -148.000 20.900 37.957 -148.078
3 10047 27.501 37.957 -128.278 20.900 37.957 -148.078 20.667 38.000 -148.000
3 10047 20.667 38.000 -148.000 27.267 38.000 -128.200 27.501 37.957 -128.278
3 10047 27.756 37.805 -127.513 27.501 37.957 -128.278 27.267 38.000 -128.200
3 10047 27.267 38.000 -128.200 27.522 37.848 -127.435 27.756 37.805 -127.513
3 10047 27.972 37.371 -126.864 27.756 37.805 -127.513 27.522 37.848 -127.435
3 10047 27.522 37.848 -127.435 27.738 37.414 -126.786 27.972 37.371 -126.864
3 10047 28.117 36.722 -126.430 27.972 37.371 -126.864 27.738 37.414 -126.786
3 10047 27.738 37.414 -126.786 27.883 36.765 -126.352 28.117 36.722 -126.430
3 10047 28.167 35.957 -126.278 28.117 36.722 -126.430 27.883 36.765 -126.352
3 10047 27.883 36.765 -126.352 27.934 36.000 -126.200 28.167 35.957 -126.278
3 10047 28.167 35.957 -126.278 27.934 36.000 -126.200 27.934 34.500 -126.200
3 10047 27.934 34.500 -126.200 28.167 34.457 -126.278 28.167 35.957 -126.278
3 10047 28.408 33.457 -125.278 28.294 33.533 -125.661 28.061 33.576 -125.583
3 10047 28.061 33.576 -125.583 28.174 33.500 -125.200 28.408 33.457 -125.278
3 10047 28.294 33.533 -125.661 28.226 33.750 -125.985 27.993 33.793 -125.907
3 10047 27.993 33.793 -125.907 28.061 33.576 -125.583 28.294 33.533 -125.661
3 10047 28.226 33.750 -125.985 28.219 33.957 -126.123 27.985 34.000 -126.046
3 10047 27.985 34.000 -126.046 27.993 33.793 -125.907 28.226 33.750 -125.985
3 10047 28.219 33.957 -126.123 28.193 34.074 -126.202 27.959 34.117 -126.124
3 10047 27.959 34.117 -126.124 27.985 34.000 -126.046 28.219 33.957 -126.123
3 10047 28.193 34.074 -126.202 28.167 34.457 -126.278 27.934 34.500 -126.200
3 10047 27.934 34.500 -126.200 27.959 34.117 -126.124 28.193 34.074 -126.202
3 10047 37.874 33.457 -96.878 28.408 33.457 -125.278 28.174 33.500 -125.200
3 10047 28.174 33.500 -125.200 37.641 33.500 -96.800 37.874 33.457 -96.878
3 10047 38.016 33.533 -96.495 37.874 33.457 -96.878 37.641 33.500 -96.800
3 10047 37.641 33.500 -96.800 37.782 33.576 -96.417 38.016 33.533 -96.495
3 10047 38.164 33.750 -96.171 38.016 33.533 -96.495 37.782 33.576 -96.417
3 10047 37.782 33.576 -96.417 37.931 33.793 -96.093 38.164 33.750 -96.171
3 10047 38.249 33.957 -96.032 38.164 33.750 -96.171 37.931 33.793 -96.093
3 10047 37.931 33.793 -96.093 38.015 34.000 -95.955 38.249 33.957 -96.032
3 10047 38.275 34.074 -95.954 38.249 33.957 -96.032 38.015 34.000 -95.955
3 10047 38.015 34.000 -95.955 38.041 34.117 -95.876 38.275 34.074 -95.954
3 10047 38.300 34.457 -95.878 38.275 34.074 -95.954 38.041 34.117 -95.876
3 10047 38.041 34.117 -95.876 38.066 34.500 -95.800 38.300 34.457 -95.878
3 10047 38.300 35.957 -95.878 38.300 34.457 -95.878 38.066 34.500 -95.800
3 10047 38.066 34.500 -95.800 38.066 36.000 -95.800 38.300 35.957 -95.878
3 10047 38.351 36.722 -95.726 38.300 35.957 -95.878 38.066 36.000 -95.800
3 10047 38.066 36.000 -95.800 38.117 36.765 -95.648 38.351 36.722 -95.726
3 10047 38.351 36.722 -95.726 38.117 36.765 -95.648 38.262 37.414 -95.214
3 10047 38.262 37.414 -95.214 38.495 37.371 -95.292 38.351 36.722 -95.726
3 10047 38.712 37.805 -94.643 38.495 37.371 -95.292 38.262 37.414 -95.214
3 10047 38.262 37.414 -95.214 38.478 37.848 -94.565 38.712 37.805 -94.643
3 10047 38.967 37.957 -93.878 38.712 37.805 -94.643 38.478 37.848 -94.565
3 10047 38.478 37.848 -94.565 38.733 38.000 -93.800 38.967 37.957 -93.878
3 10047 40.234 37.957 -90.078 38.967 37.957 -93.878 38.733 38.000 -93.800
3 10047 38.733 38.000 -93.800 40.000 38.000 -90.000 40.234 37.957 -90.078
3 10047 20.394 33.668 -149.436 40.234 -2.043 -70.078 40.000 -2.000 -70.000
3 10047 40.000 -2.000 -70.000 20.160 33.711 -149.358 20.394 33.668 -149.436
3 10047 40.250 -2.000 -70.000 40.000 -2.000 -70.000 40.234 -2.043 -70.078
3 10047 40.250 38.000 -90.000 40.234 37.957 -90.078 40.000 38.000 -90.000
3 10047 40.250 26.500 -85.833 40.250 9.141 -76.190 40.234 9.098 -76.267
3 10047 40.234 9.098 -76.267 40.234 26.457 -85.911 40.250 26.500 -85.833
3 15 40.250 34.000 -90.000 40.234 33.957 -90.078 40.234 37.957 -90.078
3 15 40.234 37.957 -90.078 40.250 38.000 -90.000 40.250 34.000 -90.000
3 15 40.250 34.000 -90.000 40.250 26.500 -85.833 40.234 26.457 -85.911
3 15 40.234 26.457 -85.911 40.234 33.957 -90.078 40.250 34.000 -90.000
3 15 40.250 9.141 -76.190 40.250 -2.000 -70.000 40.234 -2.043 -70.078
3 15 40.234 -2.043 -70.078 40.234 9.098 -76.267 40.250 9.141 -76.190
3 15 20.382 33.957 -149.632 28.193 34.074 -126.202 28.219 33.957 -126.123
3 15 40.250 -2.000 -70.000 40.250 9.141 -76.190 40.250 5.500 -67.000
3 15 40.250 26.500 -58.500 40.250 34.000 -10.000 40.250 26.500 -10.000
3 15 40.250 26.500 -85.833 40.250 34.000 -90.000 40.250 26.500 -67.000
3 15 40.250 5.500 -58.500 40.250 5.500 -67.000 40.250 26.500 -67.000
3 15 40.250 26.500 -67.000 40.250 26.500 -58.500 40.250 5.500 -58.500
3 15 40.250 5.500 -67.000 40.250 5.500 -58.500 40.250 -2.000 -12.000
3 15 40.250 -2.000 -12.000 40.250 -2.000 -70.000 40.250 5.500 -67.000
3 15 40.250 -2.000 -12.000 40.250 5.500 -58.500 40.250 5.500 -10.000
3 15 40.250 5.500 -10.000 40.250 0.000 -10.000 40.250 -2.000 -12.000
3 15 40.250 34.000 -10.000 40.250 26.500 -58.500 40.250 26.500 -67.000
3 15 40.250 26.500 -67.000 40.250 34.000 -90.000 40.250 34.000 -10.000
3 15 40.250 38.000 -14.000 40.250 34.000 -10.000 40.250 34.000 -90.000
3 15 40.250 34.000 -90.000 40.250 38.000 -90.000 40.250 38.000 -14.000
3 15 38.208 33.457 -95.878 38.016 33.533 -96.495 38.164 33.750 -96.171
3 15 28.845 26.457 -120.078 28.408 33.457 -125.278 37.874 33.457 -96.878
3 15 28.845 26.457 -120.078 20.394 33.668 -149.436 28.074 33.457 -126.278
3 15 28.117 36.722 -126.430 27.756 37.805 -127.513 27.972 37.371 -126.864
3 15 38.351 36.722 -95.726 38.495 37.371 -95.292 38.712 37.805 -94.643
3 15 38.249 33.957 -96.032 38.275 34.074 -95.954 40.234 33.957 -90.078
3 15 40.234 33.957 -90.078 38.275 34.074 -95.954 38.300 34.457 -95.878
3 15 40.234 33.957 -90.078 38.300 34.457 -95.878 38.300 35.957 -95.878
3 15 38.208 33.457 -95.878 28.845 26.457 -120.078 37.874 33.457 -96.878
3 15 37.874 33.457 -96.878 38.016 33.533 -96.495 38.208 33.457 -95.878
3 15 28.408 33.457 -125.278 28.845 26.457 -120.078 28.074 33.457 -126.278
3 15 28.074 33.457 -126.278 28.294 33.533 -125.661 28.408 33.457 -125.278
3 15 28.845 26.457 -120.078 40.234 9.098 -76.267 40.234 -2.043 -70.078
3 15 40.234 -2.043 -70.078 20.394 33.668 -149.436 28.845 26.457 -120.078
3 15 40.234 26.457 -85.911 28.845 26.457 -120.078 38.208 33.457 -95.878
3 15 38.208 33.457 -95.878 40.234 33.957 -90.078 40.234 26.457 -85.911
3 15 38.208 33.457 -95.878 38.164 33.750 -96.171 38.249 33.957 -96.032
3 15 38.249 33.957 -96.032 40.234 33.957 -90.078 38.208 33.457 -95.878
3 15 20.394 33.668 -149.436 20.382 33.957 -149.632 28.219 33.957 -126.123
3 15 28.219 33.957 -126.123 28.226 33.750 -125.985 20.394 33.668 -149.436
3 15 28.226 33.750 -125.985 28.294 33.533 -125.661 28.074 33.457 -126.278
3 15 28.074 33.457 -126.278 20.394 33.668 -149.436 28.226 33.750 -125.985
3 15 28.117 36.722 -126.430 28.167 35.957 -126.278 27.501 37.957 -128.278
3 15 27.501 37.957 -128.278 27.756 37.805 -127.513 28.117 36.722 -126.430
3 15 20.645 37.805 -148.843 20.234 35.957 -150.078 20.284 36.722 -149.926
3 15 20.284 36.722 -149.926 20.429 37.371 -149.492 20.645 37.805 -148.843
3 15 20.900 37.957 -148.078 27.501 37.957 -128.278 28.167 35.957 -126.278
3 15 28.167 35.957 -126.278 20.234 35.157 -150.078 20.900 37.957 -148.078
3 15 20.234 35.957 -150.078 20.645 37.805 -148.843 20.900 37.957 -148.078
3 15 20.900 37.957 -148.078 20.234 35.157 -150.078 20.234 35.957 -150.078
3 15 20.284 34.391 -149.926 20.234 35.157 -150.078 28.167 35.957 -126.278
3 15 28.167 35.957 -126.278 28.167 34.457 -126.278 20.284 34.391 -149.926
3 15 28.167 34.457 -126.278 28.193 34.074 -126.202 20.382 33.957 -149.632
3 15 20.382 33.957 -149.632 20.284 34.391 -149.926 28.167 34.457 -126.278
3 15 38.712 37.805 -94.643 38.967 37.957 -93.878 38.300 35.957 -95.878
3 15 38.300 35.957 -95.878 38.351 36.722 -95.726 38.712 37.805 -94.643
3 15 40.234 33.957 -90.078 38.300 35.957 -95.878 38.967 37.957 -93.878
3 15 38.967 37.957 -93.878 40.234 37.957 -90.078 40.234 33.957 -90.078
1 10047 40.0000 0.0000 -12.0000 0.0000 1.0000 0.0000 -2.0000 0.0000 0.0000 0.0000 0.0000 2.0000 1-4chrd.dat
1 10047 40.0000 34.0000 -14.0000 0.0000 1.0000 0.0000 0.0000 0.0000 4.0000 4.0000 0.0000 0.0000 1-4chrd.dat
1 10047 40.2500 0.0000 -12.0000 0.0000 -0.2500 0.0000 -2.0000 0.0000 0.0000 0.0000 0.0000 2.0000 1-4cyli.dat
1 10047 40.2500 34.0000 -14.0000 0.0000 -0.2500 0.0000 0.0000 0.0000 4.0000 4.0000 0.0000 0.0000 1-4cyli.dat
1 15 40.2500 0.0000 -12.0000 0.0000 -1.0000 0.0000 -2.0000 0.0000 0.0000 0.0000 0.0000 2.0000 1-4chrd.dat
1 15 40.2500 34.0000 -14.0000 0.0000 -1.0000 0.0000 0.0000 0.0000 4.0000 4.0000 0.0000 0.0000 1-4chrd.dat
3 10047 -16.000 29.261 -140.072 16.000 29.261 -140.072 30.000 -0.889 -73.072
3 10047 30.000 -0.889 -73.072 -30.000 -0.889 -73.072 -16.000 29.261 -140.072
3 10047 -40.000 -2.000 -70.000 -40.000 -2.000 -12.000 -38.000 -2.000 -10.000
3 10047 -38.000 -2.000 -10.000 38.000 -2.000 -10.000 40.000 -2.000 -70.000
3 10047 40.000 -2.000 -70.000 -40.000 -2.000 -70.000 -38.000 -2.000 -10.000
3 10047 40.000 -2.000 -12.000 40.000 -2.000 -70.000 38.000 -2.000 -10.000
3 10047 40.000 -2.250 -70.000 40.000 -2.000 -70.000 40.000 -2.000 -12.000
3 10047 40.000 -2.000 -12.000 40.000 -2.250 -12.000 40.000 -2.250 -70.000
3 10047 -40.000 -2.250 -70.000 -40.000 -2.250 -12.000 -40.000 -2.000 -12.000
3 10047 -40.000 -2.000 -12.000 -40.000 -2.000 -70.000 -40.000 -2.250 -70.000
3 10047 38.000 -2.250 -10.000 38.000 -2.000 -10.000 -38.000 -2.000 -10.000
3 10047 -38.000 -2.000 -10.000 -38.000 -2.250 -10.000 38.000 -2.250 -10.000
3 10047 -18.500 33.100 -148.000 18.500 34.000 -150.000 -18.500 34.000 -150.000
3 10047 -18.500 34.000 -150.000 -19.265 33.932 -149.848 -18.500 33.100 -148.000
3 10047 -18.500 33.100 -148.000 -19.265 33.932 -149.848 -19.914 33.736 -149.414
3 10047 -19.914 33.736 -149.414 -20.312 33.438 -148.751 -18.500 33.100 -148.000
3 10047 18.500 34.000 -150.000 -18.500 33.100 -148.000 18.500 33.100 -148.000
3 10047 18.500 33.100 -148.000 19.265 33.932 -149.848 18.500 34.000 -150.000
3 10047 19.914 33.736 -149.414 19.265 33.932 -149.848 18.500 33.100 -148.000
3 10047 18.500 33.100 -148.000 20.312 33.438 -148.751 19.914 33.736 -149.414
3 10047 -18.500 33.100 -148.000 -20.312 33.438 -148.751 -40.000 -2.000 -70.000
3 10047 18.500 33.100 -148.000 -18.500 33.100 -148.000 -40.000 -2.000 -70.000
3 10047 -40.000 -2.000 -70.000 40.000 -2.000 -70.000 18.500 33.100 -148.000
3 10047 20.312 33.438 -148.751 18.500 33.100 -148.000 40.000 -2.000 -70.000
3 10047 18.500 33.761 -150.072 18.500 34.000 -150.000 19.265 33.932 -149.848
3 10047 19.265 33.932 -149.848 19.265 33.693 -149.920 18.500 33.761 -150.072
3 10047 19.265 33.693 -149.920 19.265 33.932 -149.848 19.914 33.736 -149.414
3 10047 19.914 33.736 -149.414 19.914 33.497 -149.486 19.265 33.693 -149.920
3 10047 19.914 33.497 -149.486 19.914 33.736 -149.414 20.312 33.438 -148.751
3 10047 20.312 33.438 -148.751 20.312 33.199 -148.823 19.914 33.497 -149.486
3 10047 20.312 33.438 -148.751 40.000 -2.000 -70.000 40.000 -2.239 -70.072
3 10047 40.000 -2.239 -70.072 20.312 33.199 -148.823 20.312 33.438 -148.751
3 10047 40.000 -2.250 -70.000 40.000 -2.239 -70.072 40.000 -2.000 -70.000
3 10047 18.500 33.761 -150.072 -18.500 33.761 -150.072 -18.500 34.000 -150.000
3 10047 -18.500 34.000 -150.000 18.500 34.000 -150.000 18.500 33.761 -150.072
3 10047 -19.265 33.693 -149.920 -19.265 33.932 -149.848 -18.500 34.000 -150.000
3 10047 -18.500 34.000 -150.000 -18.500 33.761 -150.072 -19.265 33.693 -149.920
3 10047 -19.914 33.497 -149.486 -19.914 33.736 -149.414 -19.265 33.932 -149.848
3 10047 -19.265 33.932 -149.848 -19.265 33.693 -149.920 -19.914 33.497 -149.486
3 10047 -20.312 33.199 -148.823 -19.914 33.497 -149.486 -19.914 33.736 -149.414
3 10047 -19.914 33.736 -149.414 -20.312 33.438 -148.751 -20.312 33.199 -148.823
3 10047 -20.312 33.199 -148.823 -40.000 -2.239 -70.072 -40.000 -2.000 -70.000
3 10047 -40.000 -2.000 -70.000 -20.312 33.438 -148.751 -20.312 33.199 -148.823
3 10047 -40.000 -2.250 -70.000 -40.000 -2.239 -70.072 -40.000 -2.000 -70.000
3 15 -40.000 -2.250 -12.000 -40.000 -2.250 -70.000 -38.000 -2.250 -10.000
3 15 -38.000 -2.250 -10.000 -40.000 -2.250 -70.000 40.000 -2.250 -70.000
3 15 40.000 -2.250 -70.000 38.000 -2.250 -10.000 -38.000 -2.250 -10.000
3 15 40.000 -2.250 -70.000 40.000 -2.250 -12.000 38.000 -2.250 -10.000
3 15 -40.000 -2.239 -70.072 -30.000 -0.889 -73.072 30.000 -0.889 -73.072
3 15 30.000 -0.889 -73.072 40.000 -2.239 -70.072 -40.000 -2.239 -70.072
3 15 40.000 -2.239 -70.072 30.000 -0.889 -73.072 16.000 29.261 -140.072
3 15 16.000 29.261 -140.072 18.500 32.861 -148.072 40.000 -2.239 -70.072
3 15 -18.500 32.861 -148.072 -19.265 33.693 -149.920 -18.500 33.761 -150.072
3 15 -18.500 33.761 -150.072 18.500 33.761 -150.072 -18.500 32.861 -148.072
3 15 -18.500 32.861 -148.072 -20.312 33.199 -148.823 -19.914 33.497 -149.486
3 15 -19.914 33.497 -149.486 -19.265 33.693 -149.920 -18.500 32.861 -148.072
3 15 -20.312 33.199 -148.823 -18.500 32.861 -148.072 -16.000 29.261 -140.072
3 15 -40.000 -2.239 -70.072 -20.312 33.199 -148.823 -16.000 29.261 -140.072
3 15 -16.000 29.261 -140.072 -30.000 -0.889 -73.072 -40.000 -2.239 -70.072
3 15 18.500 33.761 -150.072 19.265 33.693 -149.920 18.500 32.861 -148.072
3 15 18.500 32.861 -148.072 -18.500 32.861 -148.072 18.500 33.761 -150.072
3 15 19.914 33.497 -149.486 20.312 33.199 -148.823 18.500 32.861 -148.072
3 15 18.500 32.861 -148.072 19.265 33.693 -149.920 19.914 33.497 -149.486
3 15 18.500 32.861 -148.072 16.000 29.261 -140.072 -16.000 29.261 -140.072
3 15 -16.000 29.261 -140.072 -18.500 32.861 -148.072 18.500 32.861 -148.072
3 15 18.500 32.861 -148.072 20.312 33.199 -148.823 40.000 -2.239 -70.072
3 15 -40.000 -2.250 -70.000 -40.000 -2.239 -70.072 40.000 -2.239 -70.072
3 15 40.000 -2.239 -70.072 40.000 -2.250 -70.000 -40.000 -2.250 -70.000
1 10047 -38.0000 -2.0000 -12.0000 0.0000 0.0000 -2.0000 0.0000 -1.0000 0.0000 2.0000 0.0000 0.0000 1-4chrd.dat
1 10047 38.0000 -2.0000 -12.0000 2.0000 0.0000 0.0000 0.0000 -1.0000 0.0000 0.0000 0.0000 2.0000 1-4chrd.dat
1 10047 -38.0000 -2.0000 -12.0000 0.0000 0.0000 -2.0000 0.0000 -0.2500 0.0000 2.0000 0.0000 0.0000 1-4cyli.dat
1 10047 38.0000 -2.0000 -12.0000 2.0000 0.0000 0.0000 0.0000 -0.2500 0.0000 0.0000 0.0000 2.0000 1-4cyli.dat
1 15 -38.0000 -2.2500 -12.0000 0.0000 0.0000 -2.0000 0.0000 1.0000 0.0000 2.0000 0.0000 0.0000 1-4chrd.dat
1 15 38.0000 -2.2500 -12.0000 2.0000 0.0000 0.0000 0.0000 1.0000 0.0000 0.0000 0.0000 2.0000 1-4chrd.dat
